Fluo 0.1 target,,
Wavelength (nm),Abs,
699.9856567,0.002084101783,
698.979126,0.001927650883,
697.972229,0.001785422093,
696.9650269,0.002069562208,
695.9575195,0.001972791273,
694.949646,0.001702149748,
693.9414673,0.001928534941,
692.9329834,0.002184930257,
692.0682983,0.001856595627,
691.0591431,0.002039548242,
690.0497437,0.002113754861,
689.039978,0.001926688827,
688.0298462,0.001995155122,
687.0194702,0.002234910848,
686.008728,0.00221929932,
684.9976196,0.002173170913,
683.9862671,0.001944057876,
682.9745483,0.001845625113,
681.9625244,0.002164013451,
680.9501343,0.002222447656,
679.9375,0.002355085686,
679.0692139,0.001553655835,
678.0559082,0.002227053046,
677.0423584,0.001983660972,
676.0284424,0.002053072443,
675.0142212,0.002352977404,
673.9996338,0.002056869678,
672.9848022,0.001727774274,
671.9696045,0.002163284924,
670.9541016,0.00200987421,
669.9382935,0.002009328222,
669.0673218,0.002371534705,
668.0509033,0.002029405208,
667.0341797,0.002047766699,
666.0171509,0.002351806266,
664.9998169,0.002078015357,
663.9821167,0.002414144343,
662.9641724,0.002193385735,
661.9458618,0.002419454511,
660.9272461,0.002050601644,
660.0539551,0.002205769997,
659.034729,0.002547413576,
658.0152588,0.002345924266,
656.9954224,0.002109644935,
655.9753418,0.00232192874,
654.954895,0.002292001387,
653.9341431,0.002167889616,
653.059021,0.002061993582,
652.0377197,0.001988783944,
651.0161133,0.002212404506,
649.9941406,0.002175460337,
648.9719238,0.002456211252,
647.9494019,0.002408391563,
647.0726929,0.001999133965,
646.0496216,0.002528510289,
645.0261841,0.002722842619,
644.0025024,0.00254452345,
642.9784546,0.002362763509,
641.9541626,0.002784947399,
640.9295044,0.002445954364,
640.0510254,0.002718310338,
639.0258179,0.002528119599,
638.0003662,0.002381191123,
636.9745483,0.002559651854,
635.9484863,0.00262441556,
635.0687256,0.002485290868,
634.0421143,0.002901600208,
633.0151367,0.00320863747,
631.987915,0.002575379563,
630.9603882,0.002834137296,
629.9325562,0.00271703396,
629.0512695,0.002698461758,
628.0228882,0.002701118588,
626.9942017,0.002871606732,
625.96521,0.002604597481,
624.9359741,0.002929927781,
624.0534668,0.002764991717,
623.0236816,0.002974416362,
621.9935303,0.003112055361,
620.9631348,0.002793675056,
619.9324341,0.002903736895,
619.0487061,0.003026416991,
618.0174561,0.002944287611,
616.9859009,0.003100245027,
615.9541016,0.003044951009,
615.069458,0.003153016791,
614.0370483,0.002958022524,
613.0043945,0.003246060805,
611.9714355,0.003299841424,
610.9382324,0.003222537227,
610.0523682,0.003392630024,
609.0185547,0.003359967843,
607.9844971,0.00351153384,
606.9501343,0.003399074078,
606.0633545,0.00341389305,
605.0284424,0.003338994458,
603.9932861,0.003469338408,
602.9578247,0.00332115218,
602.0700684,0.00358395651,
601.0341187,0.003374889959,
599.9978638,0.003757089376,
598.9613037,0.003886383492,
598.0725708,0.003680199618,
597.0355225,0.003524268977,
595.9981689,0.003865515348,
594.9605103,0.003811481642,
594.0709229,0.003807538422,
593.0327759,0.003876066767,
591.9943237,0.003979611211,
590.9555664,0.004131132271,
590.0650635,0.004097395111,
589.0258179,0.004006545991,
587.9863281,0.004300849512,
586.9465332,0.004389903508,
586.0550537,0.004209356382,
585.0147705,0.004287594464,
583.9741821,0.004432345275,
582.9332886,0.004348380957,
582.0409546,0.004361715633,
580.9995728,0.004707755521,
579.9579468,0.004667642061,
579.0648804,0.004709011875,
578.0227051,0.004723614082,
576.9802856,0.00477943616,
575.9376221,0.004605424125,
575.0436401,0.004867829382,
574.0004272,0.004977449309,
572.9569702,0.004773390479,
572.0623779,0.005115462933,
571.0183716,0.005141551606,
569.9741821,0.005131257232,
568.9296265,0.005216525868,
568.0341187,0.005301889963,
566.9891357,0.005512174685,
565.9438477,0.005570458248,
565.0477295,0.005366461352,
564.0019531,0.005564243998,
562.9558716,0.00562730711,
562.059082,0.005871150177,
561.0125732,0.005822821986,
559.9657593,0.005953598768,
559.0682983,0.006008319091,
558.0209961,0.006032965612,
556.9734497,0.006195944268,
555.9256592,0.006346979644,
555.0273438,0.006320083048,
553.9790039,0.006465328857,
552.930481,0.006510680541,
552.0314941,0.006657488178,
550.9824219,0.00691871671,
549.9331665,0.007053691428,
549.0335083,0.007217238192,
547.9837646,0.007469533477,
546.9337158,0.007642878685,
546.0334473,0.007885852829,
544.9829102,0.008168526925,
543.9321289,0.008550218306,
543.03125,0.008899374865,
541.9800415,0.009226363152,
540.9285278,0.009700406343,
540.0269775,0.01029558294,
538.9750366,0.01114997361,
538.0731201,0.01198782027,
537.0206299,0.01280177105,
535.9679565,0.01361182798,
535.0654297,0.01535991486,
534.012207,0.01683068089,
532.9588013,0.01895147748,
532.0556641,0.02125467174,
531.00177,0.02363795415,
529.9476318,0.02726041712,
529.0438232,0.03034449555,
527.9892578,0.0354151316,
526.9343872,0.04132223129,
526.0300293,0.04617236555,
524.9746704,0.05313980952,
524.0699463,0.0614974983,
523.0141602,0.07340322435,
521.9581299,0.08763961494,
521.0527344,0.1021549553,
519.9962158,0.1200548038,
518.9395142,0.1415780783,
518.0335693,0.16418311,
516.9763794,0.198344484,
516.0700073,0.2320970148,
515.0123291,0.2783290446,
513.9544678,0.3279129565,
513.0475464,0.3744322956,
511.9891663,0.4433025122,
510.930603,0.5254871249,
510.0230713,0.6098989248,
508.9640503,0.7162277699,
508.0561218,0.8056498766,
506.9966431,0.9169805646,
505.9369202,1.061062217,
505.0284119,1.20388329,
503.9682617,1.373461604,
503.0593872,1.50570786,
501.9987793,1.655825019,
500.9379578,1.799584508,
500.0284729,1.971675754,
498.9672241,2.124471426,
498.057373,2.244484663,
496.9956665,2.350217819,
495.9337158,2.436412811,
495.0232849,2.521691799,
493.960907,2.586627245,
493.0501404,2.660450697,
491.9873047,2.702614069,
490.9242859,2.68397522,
490.0129089,2.698413849,
488.9494324,2.672287703,
488.0377197,2.659793139,
486.9738159,2.619510174,
486.0617371,2.580311775,
484.997406,2.516683817,
483.9328613,2.460413694,
483.0202026,2.37458396,
481.9552002,2.280295849,
481.0422058,2.177698851,
479.9768066,2.083864212,
479.0634155,2.011193991,
477.9975891,1.90286243,
476.9315491,1.80532217,
476.0176086,1.725822926,
474.9511719,1.63344419,
474.0368652,1.579675198,
472.9700012,1.512127519,
472.0553589,1.447289586,
470.9880371,1.387615442,
470.0730591,1.341613293,
469.0053406,1.297371387,
467.9374084,1.255046129,
467.0218811,1.223760486,
465.9535522,1.183437586,
465.0376587,1.153532028,
463.9689026,1.121660471,
463.0526733,1.102650046,
461.9835205,1.07306242,
461.066925,1.03977704,
459.9973755,1.008559585,
458.9276123,0.9742678404,
458.0104675,0.9448879957,
456.9403076,0.9077446461,
456.0228577,0.8703583479,
454.9522705,0.8261309266,
454.0344543,0.7883825302,
452.963501,0.7469556928,
452.0453491,0.7172904611,
450.9739685,0.6730309129,
450.055481,0.633197248,
448.9837341,0.5944280028,
448.0649109,0.5609639287,
446.9927368,0.5277855992,
446.0735779,0.5023603439,
445.0010376,0.4690369666,
443.9282837,0.4382394552,
443.008606,0.4138294756,
441.9354553,0.3861380517,
441.0154419,0.3675940335,
439.941925,0.3470934033,
439.0215759,0.327015698,
437.9476624,0.3092237711,
437.0270081,0.2934808433,
435.9526978,0.2785800099,
435.0317078,0.2673476338,
433.9570313,0.2537883222,
433.0357056,0.2414452434,
431.9606323,0.2287890911,
431.0390015,0.21846129,
429.9635315,0.20787175,
429.0415649,0.1988706887,
427.9657593,0.1872849464,
427.043457,0.1776455492,
425.9672852,0.1674260348,
425.0446777,0.1603927463,
423.9681091,0.151912719,
423.045166,0.1433573961,
421.9682312,0.1345135272,
421.0449829,0.1278259307,
419.9676819,0.1213422343,
419.0440979,0.1166923568,
417.9664307,0.1103626564,
417.042572,0.1048638374,
415.9645081,0.09864702821,
415.0403137,0.09562808275,
413.9619141,0.09103236347,
413.0374146,0.08861383051,
411.9586487,0.08476931602,
411.033844,0.08200567216,
409.9547119,0.07986073196,
409.0296021,0.07793663442,
407.9501038,0.07647296786,
407.0246887,0.07500117272,
405.9448242,0.07398951799,
405.019104,0.07293458283,
403.9389038,0.0714545697,
403.0128784,0.07145066559,
401.932312,0.07089421153,
401.0059814,0.07033436,
399.9250793,0.06988020986,
398.9984436,0.06974094361,
398.0716553,0.06920009851,
396.9902344,0.06929676235,
396.0631714,0.06916667521,
394.9814148,0.06869900227,
394.0540161,0.06881060451,
392.9719238,0.06897569448,
392.0442505,0.06891989708,
390.961792,0.06909750402,
390.033844,0.06879595667,
388.9510498,0.06993278116,
388.0227966,0.07011003792,
386.9396362,0.07041161507,
386.0111084,0.07051748037,
384.9276428,0.07126194239,
383.9987793,0.07104829699,
383.0698242,0.07163300365,
381.9858704,0.07192219794,
381.0566101,0.07193539292,
379.97229,0.07203132659,
379.0427551,0.07223074883,
377.9581299,0.07189574093,
377.0282898,0.07039286941,
375.9433289,0.07072047144,
375.0132141,0.07053589821,
373.9279175,0.0697786361,
372.9975281,0.06929633766,
372.0670166,0.0687033087,
370.9812622,0.06747080386,
370.0504456,0.0671133101,
368.9643555,0.06625849009,
368.0332642,0.06540799886,
366.9468689,0.06469675153,
366.0155029,0.06397101283,
364.928772,0.06340400875,
363.9971313,0.06298873574,
363.0653992,0.06283084303,
361.9781799,0.0615407154,
361.0461426,0.06166728586,
359.9586487,0.06124740839,
359.0263367,0.06147554889,
357.9385071,0.06158545613,
357.0059204,0.06166833267,
356.0732422,0.06221487373,
354.9849548,0.06289737672,
354.052002,0.06369182467,
352.9633789,0.06512004137,
352.0301514,0.06658869982,
350.9412537,0.06908518076,
350.0077515,0.07191834599,

Fluo 0.1 target,
Fluo 0.1 target
Collection Time: 2026-01-27 15:10:30
Operator Name  :
Scan Software Version: 3.00(339)
Parameter List :
Instrument                        Cary 50
Instrument Version                3.00
Start (nm)                        700.0
Stop (nm)                         350.0
X Mode                            Nanometers
Y Mode                            Abs
UV-Vis Scan Rate (nm/min)         600.00
UV-Vis Data Interval (nm)         1.00
UV-Vis Ave. Time (sec)            0.1000
Beam Mode                         Dual Beam
Baseline Correction               On
Baseline Type                     Baseline correction
Baseline File Name
Baseline Std Ref File Name
Cycle Mode                        Off
Comments
Method Log     :
Method Name    :
Date/Time stamp: 2026-01-27 12:04:29
Method Modifications:
UVVIS SAT Changed: 2026-01-27 12:06:18, Old:0.0125, New:0.1000
Common SAT Changed: 2026-01-27 12:06:18, Old:0.0125, New:0.1000
X Start nm Changed: 2026-01-27 12:06:26, Old:  800.0, New:  700.0
X Stop nm Changed: 2026-01-27 12:06:26, Old:  200.0, New:  350.0
Common Interval nm Changed: 2026-01-27 12:06:26, Old:     5.00, New:     1.00
Baseline Correction Changed: 2026-01-27 12:07:43, Old:0, New:1
Baseline Correction Changed: 2026-01-27 12:09:26, Old:1, New:0
Baseline Correction Changed: 2026-01-27 15:07:12, Old:0, New:1
End Method Modifications
<Current Wavelength> , 350.0

